Spectra calibrating plot INH
wavelength	1E-4	1,5E-4	2E-4
190,00	0,453	0,633	0,812
190,50	0,820	0,652	1,509
191,00	0,502	1,241	1,270
191,50	0,914	0,827	1,042
192,00	0,482	0,931	1,163
192,50	0,458	0,781	0,744
193,00	0,843	0,631	0,731
193,50	0,838	1,326	1,355
194,00	0,367	0,684	1,203
194,50	0,553	0,830	1,044
195,00	0,456	0,967	0,779
195,50	0,332	1,053	1,371
196,00	0,439	0,492	0,985
196,50	0,466	0,937	0,780
197,00	0,541	1,751	0,902
197,50	0,611	0,543	1,145
198,00	0,531	0,710	1,717
198,50	0,429	0,658	1,535
199,00	0,554	0,490	1,340
199,50	0,431	0,993	0,702
200,00	0,499	0,622	1,144
200,50	0,480	0,895	1,119
201,00	0,462	0,765	0,927
201,50	0,499	0,764	0,732
202,00	0,427	0,622	1,043
202,50	0,517	1,091	0,750
203,00	0,437	0,456	0,800
203,50	0,569	0,639	0,834
204,00	0,429	0,769	0,663
204,50	0,545	0,620	1,309
205,00	0,435	0,633	1,638
205,50	0,550	0,714	0,906
206,00	0,498	0,782	0,709
206,50	0,476	0,643	1,008
207,00	0,525	0,715	1,014
207,50	0,576	0,840	0,925
208,00	0,646	0,830	1,048
208,50	0,712	0,998	1,213
209,00	0,740	1,075	1,370
209,50	0,741	1,081	1,415
210,00	0,754	1,101	1,426
210,50	0,748	1,097	1,439
211,00	0,740	1,090	1,432
211,50	0,732	1,080	1,424
212,00	0,722	1,067	1,400
212,50	0,711	1,051	1,379
213,00	0,698	1,033	1,354
213,50	0,685	1,015	1,329
214,00	0,672	0,995	1,302
214,50	0,658	0,975	1,274
215,00	0,644	0,954	1,246
215,50	0,630	0,933	1,217
216,00	0,615	0,910	1,187
216,50	0,600	0,888	1,157
217,00	0,585	0,866	1,127
217,50	0,571	0,844	1,097
218,00	0,557	0,823	1,069
218,50	0,544	0,803	1,042
219,00	0,531	0,783	1,015
219,50	0,518	0,764	0,990
220,00	0,506	0,746	0,966
220,50	0,495	0,729	0,943
221,00	0,485	0,713	0,922
221,50	0,475	0,699	0,902
222,00	0,466	0,686	0,885
222,50	0,458	0,673	0,868
223,00	0,451	0,662	0,853
223,50	0,444	0,652	0,839
224,00	0,438	0,642	0,827
224,50	0,432	0,634	0,816
225,00	0,428	0,627	0,807
225,50	0,424	0,621	0,800
226,00	0,421	0,616	0,793
226,50	0,418	0,612	0,788
227,00	0,416	0,609	0,784
227,50	0,415	0,607	0,781
228,00	0,414	0,606	0,779
228,50	0,414	0,605	0,778
229,00	0,413	0,605	0,778
229,50	0,414	0,605	0,779
230,00	0,414	0,606	0,780
230,50	0,415	0,607	0,782
231,00	0,416	0,608	0,784
231,50	0,417	0,610	0,786
232,00	0,418	0,612	0,788
232,50	0,419	0,613	0,790
233,00	0,420	0,615	0,793
233,50	0,421	0,617	0,795
234,00	0,422	0,618	0,797
234,50	0,423	0,620	0,800
235,00	0,424	0,621	0,802
235,50	0,425	0,622	0,803
236,00	0,425	0,624	0,805
236,50	0,426	0,624	0,806
237,00	0,426	0,625	0,807
237,50	0,426	0,625	0,807
238,00	0,426	0,625	0,807
238,50	0,426	0,624	0,807
239,00	0,425	0,624	0,806
239,50	0,425	0,623	0,805
240,00	0,424	0,621	0,803
240,50	0,423	0,620	0,801
241,00	0,421	0,618	0,798
241,50	0,420	0,616	0,796
242,00	0,419	0,613	0,793
242,50	0,417	0,611	0,790
243,00	0,415	0,608	0,786
243,50	0,413	0,606	0,783
244,00	0,412	0,603	0,779
244,50	0,410	0,600	0,776
245,00	0,408	0,598	0,772
245,50	0,407	0,595	0,769
246,00	0,405	0,593	0,766
246,50	0,403	0,590	0,763
247,00	0,402	0,588	0,760
247,50	0,400	0,586	0,757
248,00	0,399	0,584	0,754
248,50	0,398	0,582	0,752
249,00	0,397	0,580	0,750
249,50	0,396	0,579	0,748
250,00	0,395	0,578	0,747
250,50	0,395	0,578	0,746
251,00	0,395	0,577	0,746
251,50	0,395	0,577	0,746
252,00	0,395	0,578	0,747
252,50	0,396	0,578	0,748
253,00	0,397	0,580	0,750
253,50	0,398	0,582	0,752
254,00	0,399	0,584	0,755
254,50	0,401	0,586	0,759
255,00	0,403	0,589	0,763
255,50	0,405	0,593	0,768
256,00	0,408	0,597	0,773
256,50	0,411	0,601	0,779
257,00	0,414	0,606	0,785
257,50	0,417	0,611	0,792
258,00	0,421	0,617	0,799
258,50	0,424	0,622	0,806
259,00	0,428	0,627	0,813
259,50	0,431	0,633	0,820
260,00	0,435	0,639	0,828
260,50	0,439	0,645	0,836
261,00	0,443	0,651	0,844
261,50	0,447	0,657	0,852
262,00	0,451	0,663	0,861
262,50	0,455	0,668	0,868
263,00	0,458	0,674	0,875
263,50	0,462	0,680	0,883
264,00	0,466	0,686	0,891
264,50	0,470	0,691	0,899
265,00	0,473	0,697	0,906
265,50	0,476	0,702	0,912
266,00	0,479	0,706	0,918
266,50	0,482	0,711	0,924
267,00	0,485	0,715	0,930
267,50	0,488	0,719	0,935
268,00	0,490	0,722	0,940
268,50	0,492	0,726	0,944
269,00	0,494	0,729	0,949
269,50	0,496	0,732	0,953
270,00	0,498	0,735	0,957
270,50	0,500	0,738	0,960
271,00	0,502	0,741	0,964
271,50	0,503	0,743	0,967
272,00	0,504	0,745	0,969
272,50	0,505	0,746	0,971
273,00	0,506	0,747	0,972
273,50	0,506	0,747	0,973
274,00	0,506	0,747	0,973
274,50	0,506	0,747	0,972
275,00	0,505	0,746	0,971
275,50	0,504	0,745	0,970
276,00	0,504	0,744	0,968
276,50	0,503	0,742	0,966
277,00	0,502	0,741	0,965
277,50	0,501	0,740	0,963
278,00	0,500	0,739	0,961
278,50	0,500	0,738	0,960
279,00	0,499	0,737	0,960
279,50	0,499	0,737	0,959
280,00	0,499	0,737	0,958
280,50	0,498	0,736	0,958
281,00	0,498	0,736	0,957
281,50	0,498	0,735	0,956
282,00	0,497	0,735	0,955
282,50	0,496	0,733	0,954
283,00	0,496	0,732	0,952
283,50	0,495	0,731	0,951
284,00	0,494	0,729	0,948
284,50	0,492	0,727	0,946
285,00	0,491	0,726	0,944
285,50	0,490	0,724	0,942
286,00	0,490	0,723	0,940
286,50	0,489	0,723	0,939
287,00	0,489	0,722	0,939
287,50	0,489	0,722	0,939
288,00	0,489	0,723	0,940
288,50	0,490	0,724	0,941
289,00	0,490	0,725	0,943
289,50	0,491	0,726	0,945
290,00	0,493	0,728	0,947
290,50	0,494	0,729	0,949
291,00	0,495	0,731	0,951
291,50	0,496	0,733	0,953
292,00	0,497	0,734	0,956
292,50	0,498	0,736	0,958
293,00	0,499	0,737	0,960
293,50	0,500	0,739	0,961
294,00	0,500	0,740	0,963
294,50	0,501	0,741	0,964
295,00	0,502	0,742	0,966
295,50	0,502	0,742	0,966
296,00	0,502	0,743	0,967
296,50	0,502	0,743	0,967
297,00	0,502	0,743	0,967
297,50	0,502	0,742	0,967
298,00	0,502	0,742	0,967
298,50	0,502	0,742	0,966
299,00	0,501	0,741	0,964
299,50	0,500	0,740	0,963
300,00	0,499	0,738	0,962
300,50	0,498	0,737	0,959
301,00	0,497	0,735	0,957
301,50	0,496	0,733	0,954
302,00	0,494	0,731	0,951
302,50	0,493	0,728	0,948
303,00	0,491	0,726	0,945
303,50	0,489	0,722	0,941
304,00	0,487	0,719	0,937
304,50	0,485	0,716	0,932
305,00	0,482	0,712	0,928
305,50	0,480	0,708	0,922
306,00	0,477	0,704	0,917
306,50	0,474	0,700	0,911
307,00	0,471	0,696	0,906
307,50	0,469	0,691	0,900
308,00	0,465	0,687	0,894
308,50	0,462	0,682	0,887
309,00	0,459	0,676	0,880
309,50	0,455	0,671	0,873
310,00	0,452	0,665	0,866
310,50	0,448	0,660	0,858
311,00	0,444	0,654	0,850
311,50	0,440	0,648	0,843
312,00	0,436	0,642	0,835
312,50	0,432	0,636	0,826
313,00	0,428	0,630	0,818
313,50	0,424	0,624	0,810
314,00	0,420	0,617	0,801
314,50	0,415	0,610	0,792
315,00	0,411	0,603	0,783
315,50	0,406	0,596	0,774
316,00	0,402	0,590	0,765
316,50	0,397	0,583	0,756
317,00	0,392	0,576	0,746
317,50	0,388	0,568	0,737
318,00	0,383	0,561	0,727
318,50	0,378	0,553	0,717
319,00	0,372	0,545	0,706
319,50	0,368	0,538	0,697
320,00	0,363	0,531	0,687
320,50	0,358	0,523	0,677
321,00	0,353	0,516	0,667
321,50	0,348	0,508	0,656
322,00	0,342	0,500	0,646
322,50	0,337	0,492	0,636
323,00	0,333	0,485	0,626
323,50	0,327	0,476	0,615
324,00	0,322	0,469	0,605
324,50	0,317	0,461	0,594
325,00	0,312	0,453	0,584
325,50	0,307	0,445	0,574
326,00	0,301	0,437	0,563
326,50	0,297	0,430	0,554
327,00	0,292	0,423	0,544
327,50	0,287	0,415	0,534
328,00	0,282	0,407	0,523
328,50	0,277	0,399	0,513
329,00	0,272	0,392	0,504
329,50	0,267	0,385	0,494
330,00	0,262	0,378	0,484
330,50	0,257	0,370	0,475
331,00	0,253	0,363	0,464
331,50	0,248	0,355	0,455
332,00	0,243	0,348	0,445
332,50	0,238	0,341	0,436
333,00	0,234	0,334	0,427
333,50	0,229	0,327	0,418
334,00	0,225	0,320	0,409
334,50	0,220	0,313	0,399
335,00	0,216	0,306	0,390
335,50	0,211	0,299	0,381
336,00	0,207	0,293	0,372
336,50	0,202	0,286	0,364
337,00	0,198	0,279	0,355
337,50	0,194	0,273	0,346
338,00	0,189	0,267	0,338
338,50	0,185	0,260	0,330
339,00	0,181	0,254	0,321
339,50	0,177	0,248	0,313
340,00	0,173	0,242	0,305
340,50	0,169	0,235	0,297
341,00	0,165	0,229	0,289
341,50	0,161	0,224	0,282
342,00	0,157	0,218	0,274
342,50	0,154	0,213	0,268
343,00	0,151	0,208	0,261
343,50	0,147	0,202	0,254
344,00	0,144	0,197	0,247
344,50	0,140	0,192	0,240
345,00	0,137	0,187	0,234
345,50	0,134	0,182	0,227
346,00	0,131	0,178	0,221
346,50	0,128	0,174	0,216
347,00	0,125	0,169	0,210
347,50	0,123	0,165	0,204
348,00	0,120	0,161	0,199
348,50	0,117	0,157	0,194
349,00	0,115	0,153	0,189
349,50	0,112	0,149	0,184
350,00	0,110	0,145	0,179
350,50	0,108	0,142	0,175
351,00	0,106	0,138	0,169
351,50	0,103	0,135	0,165
352,00	0,101	0,132	0,160
352,50	0,099	0,128	0,156
353,00	0,097	0,125	0,152
353,50	0,095	0,122	0,148
354,00	0,093	0,119	0,144
354,50	0,091	0,116	0,140
355,00	0,089	0,113	0,136
355,50	0,087	0,110	0,132
356,00	0,085	0,108	0,128
356,50	0,084	0,105	0,125
357,00	0,082	0,102	0,122
357,50	0,081	0,100	0,119
358,00	0,079	0,098	0,115
358,50	0,077	0,095	0,112
359,00	0,076	0,093	0,110
359,50	0,075	0,091	0,107
360,00	0,073	0,089	0,104
360,50	0,072	0,088	0,102
361,00	0,071	0,086	0,099
361,50	0,070	0,084	0,097
362,00	0,069	0,082	0,094
362,50	0,068	0,081	0,092
363,00	0,067	0,079	0,090
363,50	0,066	0,078	0,088
364,00	0,065	0,076	0,087
364,50	0,064	0,075	0,085
365,00	0,063	0,074	0,083
365,50	0,062	0,072	0,081
366,00	0,061	0,071	0,079
366,50	0,061	0,070	0,078
367,00	0,060	0,069	0,077
367,50	0,060	0,068	0,075
368,00	0,059	0,067	0,074
368,50	0,058	0,066	0,072
369,00	0,057	0,065	0,071
369,50	0,057	0,064	0,070
370,00	0,056	0,063	0,068
370,50	0,056	0,062	0,068
371,00	0,055	0,062	0,066
371,50	0,055	0,061	0,065
372,00	0,054	0,060	0,064
372,50	0,054	0,060	0,064
373,00	0,053	0,059	0,063
373,50	0,053	0,058	0,062
374,00	0,053	0,058	0,061
374,50	0,052	0,057	0,060
375,00	0,052	0,057	0,060
375,50	0,052	0,056	0,059
376,00	0,051	0,056	0,058
376,50	0,051	0,055	0,058
377,00	0,051	0,055	0,057
377,50	0,050	0,055	0,056
378,00	0,050	0,054	0,056
378,50	0,050	0,054	0,055
379,00	0,050	0,053	0,055
379,50	0,049	0,053	0,054
380,00	0,049	0,053	0,054
380,50	0,049	0,053	0,054
381,00	0,049	0,052	0,053
381,50	0,049	0,052	0,053
382,00	0,049	0,052	0,052
382,50	0,048	0,051	0,052
383,00	0,048	0,051	0,052
383,50	0,048	0,051	0,051
384,00	0,048	0,051	0,051
384,50	0,048	0,051	0,051
385,00	0,048	0,050	0,051
385,50	0,047	0,050	0,050
386,00	0,047	0,050	0,050
386,50	0,047	0,050	0,050
387,00	0,047	0,050	0,050
387,50	0,047	0,050	0,049
388,00	0,047	0,049	0,049
388,50	0,047	0,049	0,049
389,00	0,047	0,049	0,049
389,50	0,047	0,049	0,049
390,00	0,047	0,049	0,048
390,50	0,047	0,049	0,048
391,00	0,046	0,049	0,048
391,50	0,046	0,049	0,048
392,00	0,046	0,048	0,048
392,50	0,046	0,048	0,048
393,00	0,046	0,048	0,048
393,50	0,046	0,048	0,047
394,00	0,046	0,048	0,047
394,50	0,046	0,048	0,047
395,00	0,046	0,048	0,047
395,50	0,046	0,048	0,047
396,00	0,046	0,048	0,047
396,50	0,046	0,048	0,047
397,00	0,046	0,048	0,047
397,50	0,046	0,048	0,047
398,00	0,046	0,048	0,047
398,50	0,046	0,047	0,046
399,00	0,045	0,047	0,046
399,50	0,045	0,047	0,046
400,00	0,045	0,047	0,046
